Output Voltage, Run #16
Time ( s )	Voltage ( V )
0.0000	-2.689
0.0100	-1.240
0.0200	-2.628
0.0300	-2.038
0.0400	3.163
0.0500	2.382
0.0600	2.561
0.0700	2.303
0.0800	2.214
0.0900	-2.937
0.1000	-2.660
0.1100	-1.252
0.1200	-2.624
0.1300	-2.059
0.1400	3.195
0.1500	2.391
0.1600	2.569
0.1700	2.292
0.1800	2.205
0.1900	-2.918
0.2000	-2.669
0.2100	-1.248
0.2200	-2.628
0.2300	-2.069
0.2400	3.226
0.2500	2.459
0.2600	2.580
0.2700	2.308
0.2800	2.219
0.2900	-2.935
0.3000	-2.658
0.3100	-1.250
0.3200	-2.627
0.3300	-2.051
0.3400	3.195
0.3500	2.299
0.3600	2.551
0.3700	2.276
0.3800	2.208
0.3900	-2.922
0.4000	-2.667
0.4100	-1.246
0.4200	-2.638
0.4300	-2.057
0.4400	3.200
0.4500	2.431
0.4600	2.568
0.4700	2.277
0.4800	2.183
0.4900	-2.916
0.5000	-2.668
0.5100	-1.242
0.5200	-2.603
0.5300	-2.061
0.5400	3.128
0.5500	2.123
0.5600	2.413
0.5700	2.185
0.5800	2.210
0.5900	-2.910
0.6000	-2.678
0.6100	-1.253
0.6200	-2.629
0.6300	-2.045
0.6400	3.138
0.6500	2.250
0.6600	2.570
0.6700	2.178
0.6800	2.150
0.6900	-2.908
0.7000	-2.675
0.7100	-1.251
0.7200	-2.612
0.7300	-2.067
0.7400	3.178
0.7500	2.279
0.7600	2.523
0.7700	2.274
0.7800	2.211
0.7900	-2.912
0.8000	-2.674
0.8100	-1.265
0.8200	-2.626
0.8300	-2.040
0.8400	3.171
0.8500	2.387
0.8600	2.520
0.8700	2.365
0.8800	2.236
0.8900	-2.865
0.9000	-2.706
0.9100	-1.234
0.9200	-2.633
0.9300	-2.047
0.9400	3.157
0.9500	2.401
0.9600	2.564
0.9700	2.253
0.9800	2.197
0.9900	-2.908
1.0000	-2.664
1.0100	-1.263
1.0200	-2.606
1.0300	-2.093
1.0400	3.204
1.0500	2.192
1.0600	2.398
1.0700	2.353
1.0800	2.174
1.0900	-2.848
1.1000	-2.716
1.1100	-1.227
1.1200	-2.611
1.1300	-2.035
1.1400	3.079
1.1500	2.102
1.1600	2.391
1.1700	2.190
1.1800	2.230
1.1900	-2.860
1.2000	-2.701
1.2100	-1.261
1.2200	-2.579
1.2300	-2.072
1.2400	3.168
1.2500	2.374
1.2600	2.558
1.2700	2.330
1.2800	2.135
1.2900	-2.947
1.3000	-2.642
1.3100	-1.258
1.3200	-2.631
1.3300	-2.045
1.3400	3.188
1.3500	2.385
1.3600	2.503
1.3700	2.380
1.3800	2.149
1.3900	-2.941
1.4000	-2.662
1.4100	-1.242
1.4200	-2.630
1.4300	-2.015
1.4400	3.096
1.4500	2.213
1.4600	2.560
1.4700	2.167
1.4800	2.133
1.4900	-2.892
1.5000	-2.662
1.5100	-1.257
1.5200	-2.578
1.5300	-2.069
1.5400	3.143
1.5500	2.188
1.5600	2.523
1.5700	2.311
1.5800	2.209
1.5900	-2.900
1.6000	-2.682
1.6100	-1.249
1.6200	-2.620
1.6300	-2.031
1.6400	3.148
1.6500	2.353
1.6600	2.546
1.6700	2.299
1.6800	2.192
1.6900	-2.929
1.7000	-2.661
1.7100	-1.252
1.7200	-2.615
1.7300	-2.050
1.7400	3.176
1.7500	2.418
1.7600	2.570
1.7700	2.286
1.7800	2.172
1.7900	-2.901
1.8000	-2.664
1.8100	-1.239
1.8200	-2.606
1.8300	-2.080
1.8400	3.201
1.8500	2.335
1.8600	2.463
1.8700	2.372
1.8800	2.161
1.8900	-2.936
1.9000	-2.666
1.9100	-1.243
1.9200	-2.631
1.9300	-2.014
1.9400	3.130
1.9500	2.225
1.9600	2.347
1.9700	2.316
1.9800	2.246
1.9900	-2.829
2.0000	-2.732
2.0100	-1.255
2.0200	-2.601
2.0300	-2.055
2.0400	3.192
2.0500	2.427
2.0600	2.557
2.0700	2.322
2.0800	2.184
2.0900	-2.908
2.1000	-2.667
2.1100	-1.259
2.1200	-2.611
2.1300	-2.049
2.1400	3.163
2.1500	2.259
2.1600	2.488
2.1700	2.310
2.1800	2.134
2.1900	-2.946
2.2000	-2.655
2.2100	-1.240
2.2200	-2.637
2.2300	-2.023
2.2400	3.175
2.2500	2.479
2.2600	2.568
2.2700	2.252
2.2800	2.166
2.2900	-2.911
2.3000	-2.647
2.3100	-1.248
2.3200	-2.604
2.3300	-2.051
2.3400	3.163
2.3500	2.336
2.3600	2.496
2.3700	2.357
2.3800	2.169
2.3900	-2.851
2.4000	-2.720
2.4100	-1.248
2.4200	-2.590
2.4300	-2.041
2.4400	3.130
2.4500	2.412
2.4600	2.553
2.4700	2.282
2.4800	2.172
2.4900	-2.887
2.5000	-2.667
2.5100	-1.246
2.5200	-2.603
2.5300	-2.083
2.5400	3.216
2.5500	2.360
2.5600	2.545
2.5700	2.319
2.5800	2.218
2.5900	-2.876
2.6000	-2.695
2.6100	-1.226
2.6200	-2.622
2.6300	-2.015
2.6400	3.125
2.6500	2.289
2.6600	2.537
2.6700	2.208
2.6800	2.170
2.6900	-2.897
2.7000	-2.664
2.7100	-1.257
2.7200	-2.612
2.7300	-2.075
2.7400	3.198
2.7500	2.404
2.7600	2.588
2.7700	2.316
2.7800	2.217
2.7900	-2.874
2.8000	-2.670
2.8100	-1.249
2.8200	-2.616
2.8300	-2.076
2.8400	3.244
2.8500	2.447
2.8600	2.490
2.8700	2.217
2.8800	2.104
2.8900	-2.846
2.9000	-2.725
2.9100	-1.216
2.9200	-2.646
2.9300	-2.026
2.9400	3.090
2.9500	2.268
2.9600	2.562
2.9700	2.284
2.9800	2.085
2.9900	-2.877
3.0000	-2.664
3.0100	-1.276
3.0200	-2.553
3.0300	-2.058
3.0400	3.110
3.0500	2.196
3.0600	2.588
3.0700	2.257
3.0800	2.062
3.0900	-2.899
3.1000	-2.676
3.1100	-1.232
3.1200	-2.600
3.1300	-2.053
3.1400	3.060
3.1500	2.283
3.1600	2.445
3.1700	2.255
3.1800	2.172
3.1900	-2.817
3.2000	-2.723
3.2100	-1.232
3.2200	-2.590
3.2300	-2.052
3.2400	3.153
3.2500	2.467
3.2600	2.564
3.2700	2.261
3.2800	2.163
3.2900	-2.899
3.3000	-2.654
3.3100	-1.242
3.3200	-2.582
3.3300	-2.065
3.3400	3.150
3.3500	2.159
3.3600	2.362
3.3700	2.216
3.3800	2.132
3.3900	-2.838
3.4000	-2.715
3.4100	-1.240
3.4200	-2.601
3.4300	-2.035
3.4400	3.154
3.4500	2.451
3.4600	2.554
3.4700	2.318
3.4800	2.153
3.4900	-2.881
3.5000	-2.666
3.5100	-1.262
3.5200	-2.580
3.5300	-2.058
3.5400	3.175
3.5500	2.230
3.5600	2.550
3.5700	2.278
3.5800	2.194
3.5900	-2.873
3.6000	-2.694
3.6100	-1.222
3.6200	-2.611
3.6300	-2.047
3.6400	3.159
3.6500	2.463
3.6600	2.557
3.6700	2.289
3.6800	2.174
3.6900	-2.900
3.7000	-2.665
3.7100	-1.243
3.7200	-2.614
3.7300	-2.062
3.7400	3.207
3.7500	2.353
3.7600	2.564
3.7700	2.292
3.7800	2.198
3.7900	-2.905
3.8000	-2.679
3.8100	-1.240
3.8200	-2.623
3.8300	-2.039
3.8400	3.196
3.8500	2.452
3.8600	2.564
3.8700	2.286
3.8800	2.200
3.8900	-2.904
3.9000	-2.654
3.9100	-1.241
3.9200	-2.610
3.9300	-2.070
3.9400	3.216
3.9500	2.391
3.9600	2.588
3.9700	2.272
3.9800	2.163
3.9900	-2.913
4.0000	-2.653
4.0100	-1.254
4.0200	-2.590
4.0300	-2.064
4.0400	3.195
4.0500	2.429
4.0600	2.400
4.0700	2.238
4.0800	2.081
4.0900	-2.853
4.1000	-2.709
4.1100	-1.235
4.1200	-2.637
4.1300	-2.022
4.1400	3.148
4.1500	2.446
4.1600	2.550
4.1700	2.339
4.1800	2.089
4.1900	-2.880
4.2000	-2.665
4.2100	-1.256
4.2200	-2.582
4.2300	-2.050
4.2400	3.154
4.2500	2.387
4.2600	2.548
4.2700	2.336
4.2800	2.110
4.2900	-2.915
4.3000	-2.658
4.3100	-1.238
4.3200	-2.579
4.3300	-2.040
4.3400	3.092
4.3500	2.124
4.3600	2.404
4.3700	2.239
4.3800	2.175
4.3900	-2.880
4.4000	-2.681
4.4100	-1.240
4.4200	-2.621
4.4300	-2.029
4.4400	3.159
4.4500	2.471
4.4600	2.647
4.4700	2.374
4.4800	2.159
4.4900	-2.896
4.5000	-2.654
4.5100	-1.246
4.5200	-2.611
4.5300	-2.058
4.5400	3.210
4.5500	2.382
4.5600	2.556
4.5700	2.277
4.5800	2.212
4.5900	-2.896
4.6000	-2.673
4.6100	-1.207
4.6200	-2.638
4.6300	-2.024
4.6400	3.116
4.6500	2.256
4.6600	2.558
4.6700	2.121
4.6800	2.102
4.6900	-2.896
4.7000	-2.648
4.7100	-1.251
4.7200	-2.609
4.7300	-2.041
4.7400	3.173
4.7500	2.467
4.7600	2.557
4.7700	2.332
4.7800	2.165
4.7900	-2.894
4.8000	-2.663
4.8100	-1.247
4.8200	-2.622
4.8300	-2.035
4.8400	3.195
4.8500	2.435
4.8600	2.560
4.8700	2.316
4.8800	2.208
4.8900	-2.913
4.9000	-2.646
4.9100	-1.252
4.9200	-2.630
4.9300	-2.035
4.9400	3.195
4.9500	2.481
4.9600	2.567
4.9700	2.348
4.9800	2.191
4.9900	-2.900
5.0000	-2.650
5.0100	-1.240
5.0200	-2.619
5.0300	-2.053
5.0400	3.202
5.0500	2.452
5.0600	2.567
5.0700	2.299
5.0800	2.216
5.0900	-2.871
5.1000	-2.668
5.1100	-1.236
5.1200	-2.643
5.1300	-2.065
5.1400	3.254
5.1500	2.391
5.1600	2.575
5.1700	2.279
5.1800	2.196
5.1900	-2.921
5.2000	-2.642
5.2100	-1.235
5.2200	-2.625
5.2300	-2.058
5.2400	3.212
5.2500	2.458
5.2600	2.575
5.2700	2.336
5.2800	2.156
5.2900	-2.932
5.3000	-2.652
5.3100	-1.251
5.3200	-2.636
5.3300	-2.023
5.3400	3.187
5.3500	2.412
5.3600	2.554
5.3700	2.322
5.3800	2.186
5.3900	-2.960
5.4000	-2.631
5.4100	-1.246
5.4200	-2.635
5.4300	-2.025
5.4400	3.179
5.4500	2.440
5.4600	2.556
5.4700	2.324
5.4800	2.166
5.4900	-2.952
5.5000	-2.628
5.5100	-1.255
5.5200	-2.642
5.5300	-2.035
5.5400	3.190
5.5500	2.426
5.5600	2.555
5.5700	2.264
5.5800	2.175
5.5900	-2.917
5.6000	-2.657
5.6100	-1.240
5.6200	-2.625
5.6300	-2.051
5.6400	3.175
5.6500	2.456
5.6600	2.567
5.6700	2.286
5.6800	2.185
5.6900	-2.905
5.7000	-2.660
5.7100	-1.244
5.7200	-2.622
5.7300	-2.058
5.7400	3.214
5.7500	2.420
5.7600	2.575
5.7700	2.290
5.7800	2.176
5.7900	-2.906
5.8000	-2.655
5.8100	-1.238
5.8200	-2.631
5.8300	-2.062
5.8400	3.203
5.8500	2.463
5.8600	2.572
5.8700	2.285
5.8800	2.201
5.8900	-2.914
5.9000	-2.658
5.9100	-1.255
5.9200	-2.623
5.9300	-2.067
5.9400	3.215
5.9500	2.471
5.9600	2.580
5.9700	2.258
5.9800	2.138
5.9900	-2.908
6.0000	-2.658
6.0100	-1.251
6.0200	-2.613
6.0300	-2.043
6.0400	3.200
6.0500	2.440
6.0600	2.554
6.0700	2.316
6.0800	2.097
6.0900	-2.934
6.1000	-2.647
6.1100	-1.246
6.1200	-2.626
6.1300	-2.021
6.1400	3.153
6.1500	2.467
6.1600	2.556
6.1700	2.279
6.1800	2.200
6.1900	-2.919
6.2000	-2.650
6.2100	-1.258
6.2200	-2.628
6.2300	-2.068
6.2400	3.212
6.2500	2.458
6.2600	2.575
6.2700	2.250
6.2800	2.137
6.2900	-2.903
6.3000	-2.651
6.3100	-1.244
6.3200	-2.607
6.3300	-2.040
6.3400	3.115
6.3500	2.214
6.3600	2.555
6.3700	2.282
6.3800	2.196
6.3900	-2.901
6.4000	-2.668
6.4100	-1.248
6.4200	-2.625
6.4300	-2.036
6.4400	3.189
6.4500	2.456
6.4600	2.642
6.4700	2.340
6.4800	2.210
6.4900	-2.889
6.5000	-2.659
6.5100	-1.245
6.5200	-2.625
6.5300	-2.058
6.5400	3.207
6.5500	2.457
6.5600	2.567
6.5700	2.312
6.5800	2.115
6.5900	-2.932
6.6000	-2.655
6.6100	-1.234
6.6200	-2.640
6.6300	-2.024
6.6400	3.147
6.6500	2.470
6.6600	2.567
6.6700	2.247
6.6800	2.130
6.6900	-2.883
6.7000	-2.658
6.7100	-1.250
6.7200	-2.604
6.7300	-2.056
6.7400	3.189
6.7500	2.456
6.7600	2.556
6.7700	2.289
6.7800	2.144
6.7900	-2.899
6.8000	-2.666
6.8100	-1.246
6.8200	-2.628
6.8300	-2.033
6.8400	3.157
6.8500	2.467
6.8600	2.557
6.8700	2.288
6.8800	2.200
6.8900	-2.904
6.9000	-2.652
6.9100	-1.243
6.9200	-2.625
6.9300	-2.069
6.9400	3.218
6.9500	2.484
6.9600	2.563
6.9700	2.307
6.9800	2.216
6.9900	-2.896
7.0000	-2.651
7.0100	-1.249
7.0200	-2.623
7.0300	-2.047
7.0400	3.212
7.0500	2.441
7.0600	2.563
7.0700	2.358
7.0800	2.200
7.0900	-2.918
7.1000	-2.668
7.1100	-1.232
7.1200	-2.644
7.1300	-2.022
7.1400	3.175
7.1500	2.441
7.1600	2.552
7.1700	2.329
7.1800	2.208
7.1900	-2.955
7.2000	-2.622
7.2100	-1.267
7.2200	-2.621
7.2300	-2.025
7.2400	3.163
7.2500	2.440
7.2600	2.555
7.2700	2.269
7.2800	2.164
7.2900	-2.918
7.3000	-2.647
7.3100	-1.242
7.3200	-2.616
7.3300	-2.039
7.3400	3.160
7.3500	2.459
7.3600	2.557
7.3700	2.308
7.3800	2.203
7.3900	-2.903
7.4000	-2.656
7.4100	-1.242
7.4200	-2.628
7.4300	-2.048
7.4400	3.236
7.4500	2.341
7.4600	2.582
7.4700	2.219
7.4800	2.149
7.4900	-2.908
7.5000	-2.650
7.5100	-1.244
7.5200	-2.623
7.5300	-2.047
7.5400	3.209
7.5500	2.427
7.5600	2.551
7.5700	2.289
7.5800	2.103
7.5900	-2.936
7.6000	-2.649
7.6100	-1.240
7.6200	-2.615
7.6300	-2.017
7.6400	3.131
7.6500	2.469
7.6600	2.560
7.6700	2.253
7.6800	2.123
7.6900	-2.883
7.7000	-2.654
7.7100	-1.245
7.7200	-2.617
7.7300	-2.053
7.7400	3.201
7.7500	2.452
7.7600	2.556
7.7700	2.335
7.7800	2.125
7.7900	-2.902
7.8000	-2.659
7.8100	-1.248
7.8200	-2.624
7.8300	-2.037
7.8400	3.184
7.8500	2.417
7.8600	2.560
7.8700	2.286
7.8800	2.175
7.8900	-2.904
7.9000	-2.644
7.9100	-1.232
7.9200	-2.625
7.9300	-2.073
7.9400	3.169
7.9500	2.326
7.9600	2.576
7.9700	2.266
7.9800	2.157
7.9900	-2.916
8.0000	-2.638
8.0100	-1.268
8.0200	-2.594
8.0300	-2.031
8.0400	3.163
8.0500	2.454
8.0600	2.556
8.0700	2.332
8.0800	2.112
8.0900	-2.928
8.1000	-2.651
8.1100	-1.254
8.1200	-2.625
8.1300	-2.028
8.1400	3.164
8.1500	2.410
8.1600	2.563
8.1700	2.229
8.1800	2.177
8.1900	-2.908
8.2000	-2.643
8.2100	-1.245
8.2200	-2.612
8.2300	-2.049
8.2400	3.173
8.2500	2.462
8.2600	2.551
8.2700	2.279
8.2800	2.172
8.2900	-2.902
8.3000	-2.658
8.3100	-1.245
8.3200	-2.623
8.3300	-2.020
8.3400	3.154
8.3500	2.441
8.3600	2.560
8.3700	2.264
8.3800	2.163
8.3900	-2.897
8.4000	-2.648
8.4100	-1.229
8.4200	-2.622
8.4300	-2.047
8.4400	3.129
8.4500	2.255
8.4600	2.555
8.4700	2.275
8.4800	2.198
8.4900	-2.888
8.5000	-2.661
8.5100	-1.255
8.5200	-2.622
8.5300	-2.029
8.5400	3.188
8.5500	2.386
8.5600	2.562
8.5700	2.268
8.5800	2.163
8.5900	-2.906
8.6000	-2.651
8.6100	-1.234
8.6200	-2.633
8.6300	-2.051
8.6400	3.175
8.6500	2.454
8.6600	2.558
8.6700	2.290
8.6800	2.195
8.6900	-2.897
8.7000	-2.650
8.7100	-1.256
8.7200	-2.625
8.7300	-2.052
8.7400	3.222
8.7500	2.370
8.7600	2.595
8.7700	2.219
8.7800	2.169
8.7900	-2.900
8.8000	-2.648
8.8100	-1.251
8.8200	-2.612
8.8300	-2.042
8.8400	3.201
8.8500	2.420
8.8600	2.551
8.8700	2.321
8.8800	2.116
8.8900	-2.885
8.9000	-2.674
8.9100	-1.241
8.9200	-2.608
8.9300	-2.004
8.9400	3.129
8.9500	2.432
8.9600	2.562
8.9700	2.369
8.9800	2.128
8.9900	-2.892
9.0000	-2.642
9.0100	-1.257
9.0200	-2.593
9.0300	-2.039
9.0400	3.141
9.0500	2.347
9.0600	2.546
9.0700	2.217
9.0800	2.070
9.0900	-2.885
9.1000	-2.653
9.1100	-1.223
9.1200	-2.582
9.1300	-2.045
9.1400	3.076
9.1500	2.114
9.1600	2.493
9.1700	2.122
9.1800	2.108
9.1900	-2.894
9.2000	-2.640
9.2100	-1.241
9.2200	-2.599
9.2300	-2.045
9.2400	3.171
9.2500	2.460
9.2600	2.554
9.2700	2.318
9.2800	2.114
9.2900	-2.918
9.3000	-2.641
9.3100	-1.259
9.3200	-2.609
9.3300	-2.023
9.3400	3.168
9.3500	2.392
9.3600	2.561
9.3700	2.248
9.3800	2.173
9.3900	-2.902
9.4000	-2.636
9.4100	-1.233
9.4200	-2.617
9.4300	-2.038
9.4400	3.131
9.4500	2.321
9.4600	2.555
9.4700	2.277
9.4800	2.187
9.4900	-2.884
9.5000	-2.650
9.5100	-1.263
9.5200	-2.617
9.5300	-2.041
9.5400	3.207
9.5500	2.348
9.5600	2.576
9.5700	2.221
9.5800	2.156
9.5900	-2.910
9.6000	-2.642
9.6100	-1.238
9.6200	-2.619
9.6300	-2.037
9.6400	3.164
9.6500	2.448
9.6600	2.553
9.6700	2.318
9.6800	2.175
9.6900	-2.900
9.7000	-2.652
9.7100	-1.240
9.7200	-2.614
9.7300	-2.017
9.7400	3.139
9.7500	2.398
9.7600	2.587
9.7700	2.347
9.7800	2.166
9.7900	-2.883
9.8000	-2.647
9.8100	-1.249
9.8200	-2.612
9.8300	-2.047
9.8400	3.193
9.8500	2.469
9.8600	2.561
9.8700	2.305
9.8800	2.223
9.8900	-2.886
9.9000	-2.654
9.9100	-1.237
9.9200	-2.637
9.9300	-2.050
9.9400	3.224
9.9500	2.367
9.9600	2.572
9.9700	2.199
9.9800	2.162
9.9900	-2.877
10.0000	-2.638
10.0100	-1.243
10.0200	-2.601
10.0300	-2.059
10.0400	3.181
10.0500	2.445
10.0600	2.561
10.0700	2.341
10.0800	2.116
10.0900	-2.941
10.1000	-2.630
10.1100	-1.247
10.1200	-2.606
10.1300	-2.014
10.1400	3.056
10.1500	2.123
10.1600	2.405
10.1700	2.123
10.1800	2.187
10.1900	-2.898
10.2000	-2.630
10.2100	-1.251
10.2200	-2.604
10.2300	-2.061
10.2400	3.161
10.2500	2.277
10.2600	2.576
10.2700	2.094
10.2800	2.054
10.2900	-2.910
10.3000	-2.618
10.3100	-1.251
10.3200	-2.556
10.3300	-2.059
10.3400	3.082
10.3500	2.085
10.3600	2.398
10.3700	2.271
10.3800	2.138
10.3900	-2.821
10.4000	-2.706
10.4100	-1.221
10.4200	-2.589
10.4300	-2.035
10.4400	3.035
10.4500	2.222
10.4600	2.566
10.4700	2.296
10.4800	2.087
10.4900	-2.872
10.5000	-2.647
10.5100	-1.267
10.5200	-2.545
10.5300	-2.047
10.5400	2.977
10.5500	2.295
10.5600	2.434
10.5700	2.141
10.5800	2.155
10.5900	-2.887
10.6000	-2.639
10.6100	-1.238
10.6200	-2.551
10.6300	-2.058
10.6400	3.087
10.6500	2.280
10.6600	2.557
10.6700	2.268
10.6800	2.102
10.6900	-2.887
10.7000	-2.636
10.7100	-1.234
10.7200	-2.559
10.7300	-2.046
10.7400	3.004
10.7500	2.272
10.7600	2.402
10.7700	2.265
10.7800	2.148
10.7900	-2.901
10.8000	-2.631
10.8100	-1.224
10.8200	-2.573
10.8300	-2.037
10.8400	3.012
10.8500	2.118
10.8600	2.618
10.8700	2.305
10.8800	2.114
10.8900	-2.894
10.9000	-2.626
10.9100	-1.236
10.9200	-2.563
10.9300	-2.050
10.9400	2.977
10.9500	2.168
10.9600	2.394
10.9700	2.263
10.9800	2.109
10.9900	-2.893
11.0000	-2.642
11.0100	-1.227
11.0200	-2.567
11.0300	-2.037
11.0400	3.044
11.0500	2.136
11.0600	2.604
11.0700	2.311
11.0800	2.128
11.0900	-2.888
11.1000	-2.634
11.1100	-1.237
11.1200	-2.564
11.1300	-2.042
11.1400	2.964
11.1500	2.083
11.1600	2.410
11.1700	2.103
11.1800	2.184
11.1900	-2.877
11.2000	-2.647
11.2100	-1.228
11.2200	-2.559
11.2300	-2.060
11.2400	3.132
11.2500	2.305
11.2600	2.556
11.2700	2.315
11.2800	2.098
11.2900	-2.878
11.3000	-2.637
11.3100	-1.226
11.3200	-2.577
11.3300	-2.039
11.3400	2.986
11.3500	2.104
11.3600	2.426
11.3700	2.181
11.3800	2.143
11.3900	-2.874
11.4000	-2.649
11.4100	-1.230
11.4200	-2.565
11.4300	-2.031
11.4400	3.088
11.4500	2.338
11.4600	2.542
11.4700	2.285
11.4800	2.102
11.4900	-2.872
11.5000	-2.631
11.5100	-1.234
11.5200	-2.546
11.5300	-2.037
11.5400	2.994
11.5500	2.230
11.5600	2.449
11.5700	2.096
11.5800	2.196
11.5900	-2.929
11.6000	-2.613
11.6100	-1.247
11.6200	-2.560
11.6300	-2.025
11.6400	3.132
11.6500	2.300
11.6600	2.551
11.6700	2.100
11.6800	2.085
11.6900	-2.916
11.7000	-2.606
11.7100	-1.238
11.7200	-2.551
11.7300	-2.039
11.7400	3.091
11.7500	2.106
11.7600	2.575
11.7700	2.269
11.7800	2.054
11.7900	-2.885
11.8000	-2.638
11.8100	-1.227
11.8200	-2.562
11.8300	-2.048
11.8400	3.090
11.8500	2.185
11.8600	2.567
11.8700	2.296
11.8800	2.076
11.8900	-2.900
11.9000	-2.618
11.9100	-1.234
11.9200	-2.553
11.9300	-2.044
11.9400	3.061
11.9500	2.106
11.9600	2.511
11.9700	2.230
11.9800	2.062
11.9900	-2.895
12.0000	-2.629
12.0100	-1.228
12.0200	-2.567
12.0300	-2.036
12.0400	3.090
12.0500	2.227
12.0600	2.555
12.0700	2.224
12.0800	2.050
12.0900	-2.879
12.1000	-2.633
12.1100	-1.232
12.1200	-2.566
12.1300	-2.042
12.1400	3.096
12.1500	2.143
12.1600	2.592
12.1700	2.133
12.1800	2.158
12.1900	-2.960
12.2000	-2.581
12.2100	-1.238
12.2200	-2.573
12.2300	-2.026
12.2400	3.093
12.2500	2.203
12.2600	2.550
12.2700	2.327
12.2800	2.101
12.2900	-2.883
12.3000	-2.639
12.3100	-1.229
12.3200	-2.589
12.3300	-2.022
12.3400	3.090
12.3500	2.375
12.3600	2.590
12.3700	2.282
12.3800	2.089
12.3900	-2.887
12.4000	-2.618
12.4100	-1.251
12.4200	-2.537
12.4300	-2.045
12.4400	3.090
12.4500	2.195
12.4600	2.564
12.4700	2.324
12.4800	2.117
12.4900	-2.886
12.5000	-2.642
12.5100	-1.218
12.5200	-2.586
12.5300	-2.013
12.5400	3.096
12.5500	2.383
12.5600	2.540
12.5700	2.046
12.5800	2.075
12.5900	-2.873
12.6000	-2.618
12.6100	-1.252
12.6200	-2.540
12.6300	-2.039
12.6400	3.087
12.6500	2.200
12.6600	2.557
12.6700	2.127
12.6800	2.067
12.6900	-2.907
12.7000	-2.618
12.7100	-1.232
12.7200	-2.563
12.7300	-2.029
12.7400	3.090
12.7500	2.189
12.7600	2.562
12.7700	2.126
12.7800	2.087
12.7900	-2.946
12.8000	-2.586
12.8100	-1.244
12.8200	-2.551
12.8300	-2.029
12.8400	3.098
12.8500	2.324
12.8600	2.544
12.8700	2.095
12.8800	2.067
12.8900	-2.886
12.9000	-2.631
12.9100	-1.229
12.9200	-2.559
12.9300	-2.039
12.9400	3.085
12.9500	2.155
12.9600	2.579
12.9700	2.142
12.9800	2.072
12.9900	-2.944
13.0000	-2.584
13.0100	-1.245
13.0200	-2.554
13.0300	-2.026
13.0400	3.082
13.0500	2.226
13.0600	2.550
13.0700	2.057
13.0800	2.158
13.0900	-2.960
13.1000	-2.571
13.1100	-1.248
13.1200	-2.576
13.1300	-2.019
13.1400	3.092
13.1500	2.324
13.1600	2.540
13.1700	2.035
13.1800	2.131
13.1900	-2.902
13.2000	-2.608
13.2100	-1.245
13.2200	-2.583
13.2300	-2.022
13.2400	3.098
13.2500	2.414
13.2600	2.671
13.2700	2.006
13.2800	2.116
13.2900	-2.918
13.3000	-2.597
13.3100	-1.252
13.3200	-2.569
13.3300	-2.043
13.3400	3.082
13.3500	2.147
13.3600	2.571
13.3700	2.039
13.3800	2.186
13.3900	-2.938
13.4000	-2.594
13.4100	-1.235
13.4200	-2.572
13.4300	-2.016
13.4400	3.096
13.4500	2.403
13.4600	2.597
13.4700	1.982
13.4800	2.122
13.4900	-2.937
13.5000	-2.567
